# E (eV)  dos(E)    pdos(E)
  -5.000  0.545E+00  0.544E+00
  -4.950  0.127E+01  0.127E+01
  -4.900  0.201E+01  0.200E+01
  -4.850  0.227E+01  0.227E+01
  -4.800  0.307E+01  0.307E+01
  -4.750  0.355E+01  0.354E+01
  -4.700  0.340E+01  0.339E+01
  -4.650  0.481E+01  0.479E+01
  -4.600  0.580E+01  0.579E+01
  -4.550  0.524E+01  0.522E+01
  -4.500  0.690E+01  0.688E+01
  -4.450  0.989E+01  0.987E+01
  -4.400  0.973E+01  0.970E+01
  -4.350  0.594E+01  0.592E+01
  -4.300  0.876E+01  0.873E+01
  -4.250  0.110E+02  0.110E+02
  -4.200  0.720E+01  0.718E+01
  -4.150  0.531E+01  0.529E+01
  -4.100  0.832E+01  0.829E+01
  -4.050  0.104E+02  0.104E+02
  -4.000  0.630E+01  0.628E+01
  -3.950  0.582E+01  0.580E+01
  -3.900  0.167E+02  0.167E+02
  -3.850  0.456E+02  0.456E+02
  -3.800  0.425E+02  0.424E+02
  -3.750  0.574E+02  0.574E+02
  -3.700  0.727E+02  0.727E+02
  -3.650  0.720E+02  0.719E+02
  -3.600  0.342E+02  0.342E+02
  -3.550  0.488E+01  0.487E+01
  -3.500  0.129E+01  0.129E+01
  -3.450  0.152E+01  0.151E+01
  -3.400  0.134E+01  0.133E+01
  -3.350  0.831E+00  0.829E+00
  -3.300  0.505E+00  0.504E+00
  -3.250  0.584E+00  0.582E+00
  -3.200  0.220E+00  0.219E+00
  -3.150  0.438E-01  0.437E-01
  -3.100  0.499E-02  0.498E-02
  -3.050  0.943E-04  0.940E-04
  -3.000  0.243E-06  0.243E-06
  -2.950  0.850E-10  0.848E-10
  -2.900  0.402E-14  0.401E-14
  -2.850  0.257E-19  0.257E-19
  -2.800  0.000E+00  0.000E+00
  -2.750  0.000E+00  0.000E+00
  -2.700  0.000E+00  0.000E+00
  -2.650  0.000E+00  0.000E+00
  -2.600  0.000E+00  0.000E+00
  -2.550  0.000E+00  0.000E+00
  -2.500  0.000E+00  0.000E+00
  -2.450  0.000E+00  0.000E+00
  -2.400  0.000E+00  0.000E+00
  -2.350  0.000E+00  0.000E+00
  -2.300  0.000E+00  0.000E+00
  -2.250  0.000E+00  0.000E+00
  -2.200  0.000E+00  0.000E+00
  -2.150  0.000E+00  0.000E+00
  -2.100  0.000E+00  0.000E+00
  -2.050  0.000E+00  0.000E+00
  -2.000  0.000E+00  0.000E+00
  -1.950  0.000E+00  0.000E+00
  -1.900  0.000E+00  0.000E+00
  -1.850  0.000E+00  0.000E+00
  -1.800  0.000E+00  0.000E+00
  -1.750  0.000E+00  0.000E+00
  -1.700  0.000E+00  0.000E+00
  -1.650  0.000E+00  0.000E+00
  -1.600  0.000E+00  0.000E+00
  -1.550  0.000E+00  0.000E+00
  -1.500  0.000E+00  0.000E+00
  -1.450  0.000E+00  0.000E+00
  -1.400  0.000E+00  0.000E+00
  -1.350  0.000E+00  0.000E+00
  -1.300  0.000E+00  0.000E+00
  -1.250  0.000E+00  0.000E+00
  -1.200  0.404E-18  0.403E-18
  -1.150  0.410E-13  0.409E-13
  -1.100  0.563E-09  0.562E-09
  -1.050  0.105E-05  0.105E-05
  -1.000  0.278E-03  0.278E-03
  -0.950  0.128E-01  0.128E-01
  -0.900  0.177E+00  0.176E+00
  -0.850  0.817E+00  0.815E+00
  -0.800  0.211E+01  0.211E+01
  -0.750  0.491E+01  0.489E+01
  -0.700  0.840E+01  0.837E+01
  -0.650  0.116E+02  0.116E+02
  -0.600  0.141E+02  0.141E+02
  -0.550  0.174E+02  0.174E+02
  -0.500  0.193E+02  0.193E+02
  -0.450  0.183E+02  0.183E+02
  -0.400  0.161E+02  0.161E+02
  -0.350  0.167E+02  0.166E+02
  -0.300  0.149E+02  0.149E+02
  -0.250  0.105E+02  0.105E+02
  -0.200  0.878E+01  0.873E+01
  -0.150  0.123E+02  0.122E+02
  -0.100  0.157E+02  0.156E+02
  -0.050  0.117E+02  0.116E+02
   0.000  0.716E+01  0.712E+01
   0.050  0.698E+01  0.694E+01
   0.100  0.107E+02  0.106E+02
   0.150  0.134E+02  0.133E+02
   0.200  0.115E+02  0.114E+02
   0.250  0.101E+02  0.999E+01
   0.300  0.750E+01  0.745E+01
   0.350  0.104E+02  0.104E+02
   0.400  0.153E+02  0.152E+02
   0.450  0.204E+02  0.202E+02
   0.500  0.334E+02  0.333E+02
   0.550  0.462E+02  0.460E+02
   0.600  0.368E+02  0.366E+02
   0.650  0.196E+02  0.195E+02
   0.700  0.129E+02  0.128E+02
   0.750  0.180E+02  0.178E+02
   0.800  0.296E+02  0.294E+02
   0.850  0.440E+02  0.436E+02
   0.900  0.491E+02  0.487E+02
   0.950  0.462E+02  0.458E+02
   1.000  0.466E+02  0.462E+02
   1.050  0.547E+02  0.543E+02
   1.100  0.667E+02  0.662E+02
   1.150  0.829E+02  0.824E+02
   1.200  0.847E+02  0.842E+02
   1.250  0.801E+02  0.797E+02
   1.300  0.699E+02  0.695E+02
   1.350  0.572E+02  0.569E+02
   1.400  0.447E+02  0.445E+02
   1.450  0.290E+02  0.288E+02
   1.500  0.128E+02  0.128E+02
   1.550  0.131E+02  0.131E+02
   1.600  0.136E+02  0.135E+02
   1.650  0.980E+01  0.974E+01
   1.700  0.854E+01  0.848E+01
   1.750  0.808E+01  0.802E+01
   1.800  0.838E+01  0.832E+01
   1.850  0.859E+01  0.852E+01
   1.900  0.840E+01  0.833E+01
   1.950  0.950E+01  0.941E+01
   2.000  0.823E+01  0.815E+01
   2.050  0.664E+01  0.658E+01
   2.100  0.594E+01  0.588E+01
   2.150  0.486E+01  0.481E+01
   2.200  0.524E+01  0.518E+01
   2.250  0.727E+01  0.719E+01
   2.300  0.504E+01  0.498E+01
   2.350  0.355E+01  0.351E+01
   2.400  0.284E+01  0.281E+01
   2.450  0.385E+01  0.381E+01
   2.500  0.487E+01  0.482E+01
   2.550  0.395E+01  0.391E+01
   2.600  0.774E+00  0.766E+00
   2.650  0.390E+00  0.386E+00
   2.700  0.139E+01  0.137E+01
   2.750  0.156E+01  0.155E+01
   2.800  0.121E+01  0.120E+01
   2.850  0.570E+00  0.565E+00
   2.900  0.190E+00  0.189E+00
   2.950  0.325E+00  0.323E+00
   3.000  0.508E+00  0.505E+00
   3.050  0.371E+00  0.369E+00
   3.100  0.536E-01  0.534E-01
   3.150  0.441E-01  0.440E-01
   3.200  0.201E-01  0.200E-01
   3.250  0.125E-02  0.125E-02
   3.300  0.106E-04  0.106E-04
   3.350  0.121E-07  0.121E-07
   3.400  0.188E-11  0.187E-11
   3.450  0.393E-16  0.391E-16
   3.500  0.000E+00  0.000E+00
   3.550  0.000E+00  0.000E+00
   3.600  0.000E+00  0.000E+00
   3.650  0.000E+00  0.000E+00
   3.700  0.000E+00  0.000E+00
   3.750  0.000E+00  0.000E+00
   3.800  0.000E+00  0.000E+00
   3.850  0.000E+00  0.000E+00
   3.900  0.000E+00  0.000E+00
   3.950  0.000E+00  0.000E+00
   4.000  0.000E+00  0.000E+00
   4.050  0.000E+00  0.000E+00
   4.100  0.287E-18  0.278E-18
   4.150  0.307E-13  0.298E-13
   4.200  0.445E-09  0.432E-09
   4.250  0.873E-06  0.848E-06
   4.300  0.232E-03  0.225E-03
   4.350  0.833E-02  0.809E-02
   4.400  0.406E-01  0.394E-01
   4.450  0.400E-01  0.389E-01
   4.500  0.230E+00  0.224E+00
   4.550  0.552E+00  0.536E+00
   4.600  0.367E+00  0.356E+00
   4.650  0.230E+00  0.223E+00
   4.700  0.359E+00  0.348E+00
   4.750  0.111E+01  0.108E+01
   4.800  0.129E+01  0.125E+01
   4.850  0.158E+01  0.153E+01
   4.900  0.631E+00  0.609E+00
   4.950  0.232E+00  0.223E+00
   5.000  0.115E+01  0.111E+01
   5.050  0.413E+01  0.398E+01
